Filename		C:\Users\09297335e\Desktop\Profiler_05.2023\2022-03-V3\V3.6FFF-20x20.ssd99.vw3.prm	
TimeStamp		3/12/2022 13:42:24	
Description			
Institution			
Software Version		3.4.0.32701	
Machine Setup:
Room		Varian	
Machine Type		TrueBeam	
Machine Model		STX	
Machine Serial Number		3908	
Beam Type		X-Ray FFF	
Energy		6	
Wedge Angle	deg	0	
Wedge Type	deg	None	
Gantry Angle	deg	0	
Collimator Angle	deg	0	
Collimator Left	cm	10	
Collimator Right	cm	10	
Collimator Top	cm	10	
Collimator Bottom	cm	10	
Rate	MU/min	0	
Dose	MU	0	
Field Size	MU	20 x 20	
Collector Setup:
Orientation		Y Axis	
Tray Mount		No	
SSD	cm	100.000	
Alignment	cm	Light Field	
Buildup	cm	3.000	
Buildup Type	cm	WaterEquiv	
Calibration File	cm	C:\SNC\Profiler\Factors\5335903\X06 21iX 24.01.08-Actual.cal	
Collector Config:
Collector Model		PROFILER 2	
Collector Serial		5335903	
Collector Revision		C	
Firmware Version	ms	1.2.3	
Measurement Mode	ms	Pulsed	
Nominal Gain	ms	4	
Collection Interval	ms	100	
General Analysis
CAX Dose		0	
Photon Wedge Angle		0	
Analysis Config		Custom	
Flatness type		Variance	
Symmetry Type		Area (sym)	
Energy Calibration		A3.ElectronWedge	
Energy Analysis		Intercept	
Penumbra Top		80	
Penumbra Bottom		20	
Flatness Field Percent		80	
Symmetry Field Percent		80	
Base Intensity Point		MAX	
Intensity Field Percentage		50	
X Axis Analysis
Field Size	cm	19.7426	
Beam Center	cm	0.0472585	
Light/Rad Coinc. Bottom	cm	-0.17597	
Light/Rad Coinc. Top	cm	-0.0814529	
Penumbra Bottom	cm	-1.01029	
Penumbra Top	cm	-0.440618	
Flatness Result	perc	12.7761	
Symmetry Result	perc	0.519778	
Electron Energy	Ep0		
Electron Energy	D80		
Y Axis Analysis
Field Size	cm	19.6291	
Beam Center	cm	-0.101247	
Light/Rad Coinc. Bottom	cm	-0.0842241	
Light/Rad Coinc. Top	cm	-0.286718	
Penumbra Bottom	cm	-0.895289	
Penumbra Top	cm	-1.51386	
Flatness Result	perc	12.7447	
Symmetry Result	perc	1.18585	
Electron Energy	Ep0		
Electron Energy	D80		
Measured Data:	Total Dose-Normalized (%)
Pulses:		294
TimerTics	(1 uSec)	3100812

Detector ID	X Axis Position(cm)	Set 1
	-11.20	5.61154514	
	-10.80	6.94489760	
	-10.40	9.95814093	
	-10.00	40.45426694	
	-9.60	67.47692991	
	-9.20	71.50858594	
	-8.80	73.60969329	
	-8.40	76.34527272	
	-8.00	76.84487919	
	-7.60	78.14058406	
	-7.20	79.80567468	
	-6.80	81.24167989	
	-6.40	82.50277841	
	-6.00	83.91898017	
	-5.60	85.39369909	
	-5.20	87.06768380	
	-4.80	88.22191560	
	-4.40	89.73631837	
	-4.00	91.24014383	
	-3.60	92.08505443	
	-3.20	93.18810038	
	-2.80	94.10958253	
	-2.40	96.06900415	
	-2.00	95.58400686	
	-1.60	96.63048061	
	-1.20	97.43672416	
	-0.80	97.80202635	
	-0.40	99.59744051	
	0.00	100.00000000	
	0.40	98.77513707	
	0.80	98.20351100	
	1.20	97.70929284	
	1.60	97.74285413	
	2.00	96.92832681	
	2.40	98.18753543	
	2.80	94.57794323	
	3.20	94.72135374	
	3.60	93.33274214	
	4.00	91.14753087	
	4.40	91.33911656	
	4.80	88.94922284	
	5.20	87.72104912	
	5.60	86.79754314	
	6.00	85.27839668	
	6.40	84.33018463	
	6.80	82.64430633	
	7.20	81.69034835	
	7.60	79.31937100	
	8.00	77.70652359	
	8.40	76.27845983	
	8.80	74.29319824	
	9.20	71.77431659	
	9.60	69.07337550	
	10.00	53.22024350	
	10.40	10.98526596	
	10.80	7.20702180	
	11.20	5.67532511	
Detector ID	Y Axis Position(cm)	Set 1
	-16.40	1.55386151	
	-16.00	1.63954429	
	-15.60	1.68466560	
	-15.20	1.92258005	
	-14.80	2.08931915	
	-14.40	2.29438384	
	-14.00	2.58557504	
	-13.60	2.86113647	
	-13.20	3.24442828	
	-12.80	3.53453964	
	-12.40	3.98765240	
	-12.00	4.56173289	
	-11.60	5.29814834	
	-11.20	6.33520488	
	-10.80	8.14103606	
	-10.40	13.62686899	
	-10.00	52.76727182	
	-9.60	69.39031135	
	-9.20	73.09517752	
	-8.80	74.99132980	
	-8.40	75.86673032	
	-8.00	77.86279340	
	-7.60	80.10163698	
	-7.20	81.36808001	
	-6.80	84.36600378	
	-6.40	84.60443101	
	-6.00	85.55723543	
	-5.60	87.00907150	
	-5.20	87.68160942	
	-4.80	90.56043430	
	-4.40	91.11771637	
	-4.00	91.68144585	
	-3.60	92.48998212	
	-3.20	95.60846207	
	-2.80	94.60616114	
	-2.40	95.82959471	
	-2.00	96.25786189	
	-1.60	100.72360509	
	-1.20	99.41920034	
	-0.80	99.14218049	
	-0.40	97.74426734	
	0.00	100.00000000	
	0.40	98.82802942	
	0.80	99.49728978	
	1.20	98.88113936	
	1.60	97.56404634	
	2.00	98.23592309	
	2.40	97.41287691	
	2.80	94.31024844	
	3.20	95.83507006	
	3.60	93.43492308	
	4.00	91.58388079	
	4.40	90.52208585	
	4.80	88.82733941	
	5.20	89.02980530	
	5.60	87.28667021	
	6.00	86.16406541	
	6.40	84.66156074	
	6.80	83.03688459	
	7.20	81.99177658	
	7.60	78.62240292	
	8.00	77.33416194	
	8.40	75.97334263	
	8.80	74.09353239	
	9.20	70.98561932	
	9.60	65.06029870	
	10.00	27.29429641	
	10.40	9.56358067	
	10.80	7.13114665	
	11.20	5.70883121	
	11.60	4.93523567	
	12.00	4.30528529	
	12.40	3.81641502	
	12.80	3.42024533	
	13.20	3.09110527	
	13.60	2.79274965	
	14.00	2.46334178	
	14.40	2.28050412	
	14.80	2.13781259	
	15.20	1.94509830	
	15.60	1.71930690	
	16.00	1.63199377	
	16.40	1.44143671	
